2THETA,PSD
14.9984,237
15.0188,212
15.0391,201
15.0595,221
15.0799,194
15.1002,239
15.1206,225
15.1409,219
15.1613,216
15.1816,232
15.2020,208
15.2223,209
15.2427,260
15.2631,231
15.2834,244
15.3038,209
15.3241,198
15.3445,239
15.3648,212
15.3852,205
15.4055,228
15.4259,211
15.4462,209
15.4666,205
15.4870,218
15.5073,217
15.5277,216
15.5480,195
15.5684,175
15.5887,174
15.6091,210
15.6294,192
15.6498,208
15.6702,217
15.6905,231
15.7109,192
15.7312,221
15.7516,222
15.7719,196
15.7923,224
15.8126,193
15.8330,197
15.8533,212
15.8737,207
15.8941,206
15.9144,213
15.9348,229
15.9551,199
15.9755,198
15.9958,207
16.0162,195
16.0365,209
16.0569,184
16.0773,218
16.0976,181
16.1180,234
16.1383,193
16.1587,213
16.1790,226
16.1994,191
16.2197,189
16.2401,204
16.2605,213
16.2808,205
16.3012,190
16.3215,161
16.3419,203
16.3622,194
16.3826,175
16.4029,188
16.4233,207
16.4436,186
16.4640,208
16.4844,190
16.5047,205
16.5251,185
16.5454,213
16.5658,221
16.5861,184
16.6065,225
16.6268,191
16.6472,175
16.6676,164
16.6879,161
16.7083,186
16.7286,190
16.7490,202
16.7693,191
16.7897,201
16.8100,191
16.8304,194
16.8508,169
16.8711,203
16.8915,190
16.9118,192
16.9322,201
16.9525,217
16.9729,175
16.9932,183
17.0136,194
17.0339,196
17.0543,189
17.0747,185
17.0950,158
17.1154,192
17.1357,202
17.1561,217
17.1764,188
17.1968,181
17.2171,170
17.2375,184
17.2579,168
17.2782,172
17.2986,187
17.3189,183
17.3393,190
17.3596,207
17.3800,174
17.4003,216
17.4207,175
17.4410,175
17.4614,165
17.4818,172
17.5021,192
17.5225,200
17.5428,178
17.5632,188
17.5835,203
17.6039,177
17.6242,179
17.6446,172
17.6650,171
17.6853,169
17.7057,178
17.7260,147
17.7464,157
17.7667,192
17.7871,192
17.8074,197
17.8278,167
17.8482,184
17.8685,204
17.8889,194
17.9092,196
17.9296,176
17.9499,194
17.9703,172
17.9906,198
18.0110,161
18.0313,173
18.0517,184
18.0721,202
18.0924,186
18.1128,206
18.1331,177
18.1535,170
18.1738,167
18.1942,181
18.2145,172
18.2349,185
18.2553,190
18.2756,177
18.2960,206
18.3163,179
18.3367,165
18.3570,161
18.3774,180
18.3977,206
18.4181,210
18.4385,204
18.4588,167
18.4792,194
18.4995,168
18.5199,197
18.5402,180
18.5606,194
18.5809,155
18.6013,178
18.6216,201
18.6420,193
18.6624,191
18.6827,177
18.7031,188
18.7234,183
18.7438,164
18.7641,175
18.7845,172
18.8048,198
18.8252,180
18.8456,203
18.8659,175
18.8863,191
18.9066,173
18.9270,157
18.9473,184
18.9677,181
18.9880,175
19.0084,199
19.0287,186
19.0491,183
19.0695,176
19.0898,168
19.1102,189
19.1305,190
19.1509,177
19.1712,170
19.1916,190
19.2119,184
19.2323,181
19.2527,194
19.2730,188
19.2934,173
19.3137,199
19.3341,192
19.3544,177
19.3748,179
19.3951,182
19.4155,189
19.4359,188
19.4562,172
19.4766,198
19.4969,210
19.5173,214
19.5376,184
19.5580,181
19.5783,196
19.5987,185
19.6190,195
19.6394,199
19.6598,153
19.6801,193
19.7005,191
19.7208,197
19.7412,188
19.7615,201
19.7819,197
19.8022,193
19.8226,184
19.8430,172
19.8633,181
19.8837,176
19.9040,199
19.9244,167
19.9447,187
19.9651,206
19.9854,174
20.0058,189
20.0261,187
20.0465,189
20.0669,185
20.0872,191
20.1076,198
20.1279,182
20.1483,182
20.1686,172
20.1890,196
20.2093,184
20.2297,185
20.2501,171
20.2704,184
20.2908,169
20.3111,194
20.3315,182
20.3518,164
20.3722,169
20.3925,170
20.4129,180
20.4333,172
20.4536,187
20.4740,194
20.4943,161
20.5147,203
20.5350,204
20.5554,182
20.5757,205
20.5961,169
20.6164,187
20.6368,177
20.6572,170
20.6775,199
20.6979,207
20.7182,170
20.7386,187
20.7589,206
20.7793,198
20.7996,168
20.8200,177
20.8404,181
20.8607,183
20.8811,177
20.9014,188
20.9218,204
20.9421,224
20.9625,208
20.9828,203
21.0032,203
21.0236,181
21.0439,164
21.0643,177
21.0846,193
21.1050,216
21.1253,193
21.1457,188
21.1660,186
21.1864,208
21.2067,158
21.2271,193
21.2475,198
21.2678,202
21.2882,202
21.3085,195
21.3289,194
21.3492,169
21.3696,205
21.3899,206
21.4103,180
21.4307,193
21.4510,193
21.4714,193
21.4917,198
21.5121,199
21.5324,214
21.5528,181
21.5731,184
21.5935,194
21.6138,202
21.6342,190
21.6546,198
21.6749,220
21.6953,206
21.7156,189
21.7360,192
21.7563,198
21.7767,193
21.7970,228
21.8174,177
21.8378,196
21.8581,193
21.8785,200
21.8988,187
21.9192,175
21.9395,175
21.9599,210
21.9802,189
22.0006,194
22.0210,207
22.0413,192
22.0617,189
22.0820,186
22.1024,189
22.1227,162
22.1431,177
22.1634,236
22.1838,199
22.2041,201
22.2245,197
22.2449,229
22.2652,201
22.2856,210
22.3059,185
22.3263,205
22.3466,202
22.3670,195
22.3873,188
22.4077,196
22.4281,199
22.4484,218
22.4688,189
22.4891,204
22.5095,226
22.5298,201
22.5502,226
22.5705,218
22.5909,214
22.6113,175
22.6316,165
22.6520,210
22.6723,223
22.6927,227
22.7130,177
22.7334,202
22.7537,223
22.7741,189
22.7944,203
22.8148,184
22.8352,205
22.8555,185
22.8759,221
22.8962,218
22.9166,224
22.9369,213
22.9573,209
22.9776,193
22.9980,193
23.0184,229
23.0387,211
23.0591,212
23.0794,211
23.0998,203
23.1201,196
23.1405,224
23.1608,230
23.1812,233
23.2015,222
23.2219,189
23.2423,204
23.2626,210
23.2830,237
23.3033,199
23.3237,215
23.3440,200
23.3644,204
23.3847,223
23.4051,227
23.4255,212
23.4458,229
23.4662,207
23.4865,213
23.5069,194
23.5272,209
23.5476,188
23.5679,220
23.5883,226
23.6087,242
23.6290,245
23.6494,221
23.6697,234
23.6901,220
23.7104,232
23.7308,231
23.7511,199
23.7715,228
23.7918,234
23.8122,226
23.8326,253
23.8529,228
23.8733,236
23.8936,240
23.9140,238
23.9343,253
23.9547,217
23.9750,310
23.9954,264
24.0158,268
24.0361,248
24.0565,266
24.0768,292
24.0972,269
24.1175,323
24.1379,337
24.1582,376
24.1786,436
24.1990,448
24.2193,483
24.2397,450
24.2600,480
24.2804,517
24.3007,565
24.3211,585
24.3414,655
24.3618,697
24.3821,701
24.4025,809
24.4229,879
24.4432,938
24.4636,975
24.4839,1019
24.5043,1058
24.5246,962
24.5450,894
24.5653,734
24.5857,679
24.6061,604
24.6264,470
24.6468,415
24.6671,374
24.6875,378
24.7078,352
24.7282,324
24.7485,326
24.7689,328
24.7892,307
24.8096,292
24.8300,240
24.8503,241
24.8707,258
24.8910,257
24.9114,254
24.9317,283
24.9521,261
24.9724,250
24.9928,223
25.0132,251
25.0335,256
25.0539,253
25.0742,262
25.0946,272
25.1149,263
25.1353,230
25.1556,245
25.1760,277
25.1964,264
25.2167,269
25.2371,245
25.2574,256
25.2778,275
25.2981,255
25.3185,247
25.3388,252
25.3592,287
25.3795,279
25.3999,258
25.4203,313
25.4406,272
25.4610,252
25.4813,263
25.5017,269
25.5220,257
25.5424,277
25.5627,245
25.5831,261
25.6035,245
25.6238,245
25.6442,275
25.6645,299
25.6849,277
25.7052,273
25.7256,249
25.7459,278
25.7663,282
25.7866,261
25.8070,270
25.8274,303
25.8477,268
25.8681,288
25.8884,273
25.9088,280
25.9291,262
25.9495,251
25.9698,264
25.9902,296
26.0106,251
26.0309,258
26.0513,273
26.0716,278
26.0920,258
26.1123,277
26.1327,269
26.1530,264
26.1734,306
26.1938,273
26.2141,287
26.2345,281
26.2548,265
26.2752,295
26.2955,315
26.3159,254
26.3362,274
26.3566,279
26.3769,296
26.3973,281
26.4177,272
26.4380,298
26.4584,260
26.4787,290
26.4991,272
26.5194,281
26.5398,255
26.5601,279
26.5805,286
26.6009,325
26.6212,304
26.6416,288
26.6619,273
26.6823,305
26.7026,282
26.7230,273
26.7433,263
26.7637,295
26.7841,243
26.8044,282
26.8248,265
26.8451,283
26.8655,306
26.8858,272
26.9062,297
26.9265,299
26.9469,287
26.9672,272
26.9876,276
27.0080,311
27.0283,274
27.0487,284
27.0690,314
27.0894,275
27.1097,298
27.1301,315
27.1504,317
27.1708,267
27.1912,272
27.2115,293
27.2319,292
27.2522,331
27.2726,300
27.2929,290
27.3133,286
27.3336,295
27.3540,288
27.3743,295
27.3947,285
27.4151,307
27.4354,315
27.4558,289
27.4761,329
27.4965,306
27.5168,292
27.5372,274
27.5575,300
27.5779,325
27.5983,290
27.6186,284
27.6390,317
27.6593,289
27.6797,319
27.7000,297
27.7204,301
27.7407,298
27.7611,342
27.7815,287
27.8018,309
27.8222,287
27.8425,311
27.8629,317
27.8832,263
27.9036,307
27.9239,293
27.9443,307
27.9646,298
27.9850,289
28.0054,332
28.0257,318
28.0461,302
28.0664,332
28.0868,318
28.1071,318
28.1275,295
28.1478,321
28.1682,278
28.1886,302
28.2089,318
28.2293,303
28.2496,324
28.2700,296
28.2903,286
28.3107,330
28.3310,309
28.3514,301
28.3718,315
28.3921,348
28.4125,329
28.4328,306
28.4532,313
28.4735,316
28.4939,332
28.5142,305
28.5346,301
28.5549,315
28.5753,313
28.5957,291
28.6160,329
28.6364,307
28.6567,335
28.6771,323
28.6974,295
28.7178,296
28.7381,306
28.7585,312
28.7789,320
28.7992,305
28.8196,313
28.8399,327
28.8603,310
28.8806,284
28.9010,301
28.9213,310
28.9417,303
28.9620,326
28.9824,308
29.0028,282
29.0231,338
29.0435,301
29.0638,272
29.0842,325
29.1045,322
29.1249,328
29.1452,302
29.1656,303
29.1860,295
29.2063,349
29.2267,323
29.2470,329
29.2674,260
29.2877,306
29.3081,301
29.3284,314
29.3488,326
29.3692,308
29.3895,284
29.4099,337
29.4302,312
29.4506,304
29.4709,325
29.4913,310
29.5116,315
29.5320,331
29.5523,344
29.5727,314
29.5931,310
29.6134,314
29.6338,341
29.6541,313
29.6745,335
29.6948,338
29.7152,312
29.7355,315
29.7559,295
29.7763,305
29.7966,295
29.8170,308
29.8373,336
29.8577,299
29.8780,311
29.8984,309
29.9187,333
29.9391,310
29.9595,341
29.9798,285
30.0002,312
30.0205,296
30.0409,313
30.0612,296
30.0816,303
30.1019,320
30.1223,295
30.1426,321
30.1630,308
30.1834,307
30.2037,316
30.2241,288
30.2444,300
30.2648,320
30.2851,313
30.3055,324
30.3258,318
30.3462,296
30.3666,306
30.3869,318
30.4073,302
30.4276,283
30.4480,315
30.4683,284
30.4887,286
30.5090,330
30.5294,283
30.5497,305
30.5701,327
30.5905,304
30.6108,366
30.6312,324
30.6515,321
30.6719,300
30.6922,279
30.7126,298
30.7329,310
30.7533,296
30.7737,299
30.7940,305
30.8144,314
30.8347,322
30.8551,325
30.8754,295
30.8958,313
30.9161,323
30.9365,301
30.9569,299
30.9772,302
30.9976,310
31.0179,264
31.0383,293
31.0586,330
31.0790,296
31.0993,329
31.1197,276
31.1400,266
31.1604,287
31.1808,289
31.2011,299
31.2215,288
31.2418,294
31.2622,326
31.2825,269
31.3029,306
31.3232,332
31.3436,285
31.3640,302
31.3843,315
31.4047,330
31.4250,263
31.4454,279
31.4657,304
31.4861,307
31.5064,310
31.5268,288
31.5471,281
31.5675,275
31.5879,272
31.6082,308
31.6286,279
31.6489,309
31.6693,264
31.6896,307
31.7100,311
31.7303,311
31.7507,290
31.7711,304
31.7914,295
31.8118,299
31.8321,320
31.8525,284
31.8728,289
31.8932,279
31.9135,243
31.9339,254
31.9543,273
31.9746,278
31.9950,286
32.0153,302
32.0357,270
32.0560,261
32.0764,290
32.0967,295
32.1171,309
32.1374,285
32.1578,283
32.1782,302
32.1985,312
32.2189,277
32.2392,289
32.2596,294
32.2799,270
32.3003,301
32.3206,263
32.3410,298
32.3614,277
32.3817,272
32.4021,262
32.4224,279
32.4428,303
32.4631,266
32.4835,305
32.5038,265
32.5242,271
32.5446,250
32.5649,275
32.5853,289
32.6056,284
32.6260,289
32.6463,278
32.6667,264
32.6870,256
32.7074,307
32.7277,264
32.7481,279
32.7685,276
32.7888,290
32.8092,286
32.8295,296
32.8499,280
32.8702,270
32.8906,293
32.9109,261
32.9313,286
32.9517,267
32.9720,262
32.9924,296
33.0127,286
33.0331,265
33.0534,277
33.0738,269
33.0941,302
33.1145,297
33.1348,278
33.1552,265
33.1756,246
33.1959,280
33.2163,276
33.2366,284
33.2570,259
33.2773,265
33.2977,287
33.3180,247
33.3384,287
33.3588,263
33.3791,250
33.3995,273
33.4198,274
33.4402,272
33.4605,249
33.4809,237
33.5012,263
33.5216,276
33.5420,244
33.5623,282
33.5827,247
33.6030,261
33.6234,252
33.6437,226
33.6641,266
33.6844,252
33.7048,245
33.7251,232
33.7455,259
33.7659,271
33.7862,234
33.8066,234
33.8269,269
33.8473,242
33.8676,226
33.8880,257
33.9083,252
33.9287,239
33.9491,246
33.9694,236
33.9898,247
34.0101,256
34.0305,214
34.0508,260
34.0712,258
34.0915,245
34.1119,251
34.1323,239
34.1526,244
34.1730,236
34.1933,249
34.2137,255
34.2340,270
34.2544,249
34.2747,220
34.2951,212
34.3154,240
34.3358,220
34.3562,214
34.3765,219
34.3969,225
34.4172,253
34.4376,222
34.4579,229
34.4783,263
34.4986,253
34.5190,223
34.5394,248
34.5597,246
34.5801,260
34.6004,250
34.6208,270
34.6411,244
34.6615,242
34.6818,233
34.7022,220
34.7225,219
34.7429,268
34.7633,269
34.7836,227
34.8040,225
34.8243,228
34.8447,228
34.8650,243
34.8854,246
34.9057,234
34.9261,248
34.9465,261
34.9668,240
34.9872,237
35.0075,234
35.0279,238
35.0482,240
35.0686,213
35.0889,226
35.1093,219
35.1297,199
35.1500,249
35.1704,222
35.1907,268
35.2111,218
35.2314,226
35.2518,248
35.2721,246
35.2925,229
35.3128,262
35.3332,228
35.3536,251
35.3739,240
35.3943,248
35.4146,215
35.4350,240
35.4553,225
35.4757,215
35.4960,228
35.5164,217
35.5368,240
35.5571,220
35.5775,236
35.5978,239
35.6182,245
35.6385,208
35.6589,223
35.6792,214
35.6996,210
35.7200,239
35.7403,211
35.7607,227
35.7810,207
35.8014,225
35.8217,253
35.8421,269
35.8624,258
35.8828,243
35.9031,237
35.9235,255
35.9439,232
35.9642,244
35.9846,253
36.0049,235
36.0253,248
36.0456,262
36.0660,296
36.0863,282
36.1067,306
36.1271,343
36.1474,315
36.1678,350
36.1881,355
36.2085,314
36.2288,292
36.2492,274
36.2695,270
36.2899,272
36.3102,220
36.3306,243
36.3510,257
36.3713,216
36.3917,231
36.4120,213
36.4324,240
36.4527,213
36.4731,242
36.4934,243
36.5138,261
36.5342,254
36.5545,227
36.5749,201
36.5952,221
36.6156,229
36.6359,265
36.6563,253
36.6766,222
36.6970,282
36.7174,254
36.7377,263
36.7581,250
36.7784,244
36.7988,284
36.8191,305
36.8395,306
36.8598,355
36.8802,403
36.9005,476
36.9209,520
36.9413,555
36.9616,645
36.9820,607
37.0023,641
37.0227,663
37.0430,563
37.0634,507
37.0837,464
37.1041,431
37.1245,372
37.1448,330
37.1652,305
37.1855,280
37.2059,244
37.2262,265
37.2466,252
37.2669,244
37.2873,243
37.3076,233
37.3280,240
37.3484,221
37.3687,251
37.3891,215
37.4094,244
37.4298,243
37.4501,202
37.4705,235
37.4908,230
37.5112,216
37.5316,211
37.5519,222
37.5723,225
37.5926,257
37.6130,260
37.6333,233
37.6537,265
37.6740,265
37.6944,309
37.7148,352
37.7351,353
37.7555,379
37.7758,365
37.7962,346
37.8165,332
37.8369,296
37.8572,276
37.8776,253
37.8979,254
37.9183,249
37.9387,245
37.9590,247
37.9794,233
37.9997,214
38.0201,228
38.0404,198
38.0608,208
38.0811,241
38.1015,229
38.1219,208
38.1422,232
38.1626,217
38.1829,219
38.2033,216
38.2236,203
38.2440,206
38.2643,209
38.2847,211
38.3051,182
38.3254,205
38.3458,209
38.3661,205
38.3865,225
38.4068,193
38.4272,209
38.4475,215
38.4679,196
38.4882,216
38.5086,202
38.5290,224
38.5493,212
38.5697,204
38.5900,178
38.6104,198
38.6307,217
38.6511,208
38.6714,186
38.6918,178
38.7122,224
38.7325,217
38.7529,206
38.7732,203
38.7936,197
38.8139,162
38.8343,198
38.8546,214
38.8750,198
38.8953,200
38.9157,200
38.9361,208
38.9564,200
38.9768,220
38.9971,189
39.0175,221
39.0378,190
39.0582,203
39.0785,204
39.0989,210
39.1193,203
39.1396,241
39.1600,170
39.1803,198
39.2007,196
39.2210,208
39.2414,207
39.2617,208
39.2821,203
39.3025,228
39.3228,217
39.3432,192
39.3635,211
39.3839,192
39.4042,194
39.4246,201
39.4449,199
39.4653,197
39.4856,214
39.5060,218
39.5264,174
39.5467,220
39.5671,201
39.5874,198
39.6078,197
39.6281,189
39.6485,206
39.6688,208
39.6892,214
39.7096,190
39.7299,192
39.7503,158
39.7706,188
39.7910,188
39.8113,203
39.8317,222
39.8520,208
39.8724,191
39.8928,196
39.9131,197
39.9335,205
39.9538,205
39.9742,217
39.9945,211
40.0149,199
40.0352,209
40.0556,185
40.0759,191
40.0963,195
40.1167,228
40.1370,212
40.1574,193
40.1777,206
40.1981,227
40.2184,205
40.2388,207
40.2591,212
40.2795,192
40.2999,198
40.3202,204
40.3406,228
40.3609,216
40.3813,199
40.4016,212
40.4220,194
40.4423,195
40.4627,183
40.4830,207
40.5034,190
40.5238,206
40.5441,176
40.5645,199
40.5848,169
40.6052,191
40.6255,177
40.6459,179
40.6662,217
40.6866,179
40.7070,185
40.7273,200
40.7477,179
40.7680,183
40.7884,181
40.8087,191
40.8291,220
40.8494,181
40.8698,203
40.8902,191
40.9105,196
40.9309,215
40.9512,186
40.9716,198
40.9919,192
41.0123,187
41.0326,189
41.0530,198
41.0733,186
41.0937,181
41.1141,195
41.1344,178
41.1548,219
41.1751,188
41.1955,173
41.2158,181
41.2362,178
41.2565,186
41.2769,164
41.2973,186
41.3176,186
41.3380,185
41.3583,168
41.3787,192
41.3990,192
41.4194,191
41.4397,208
41.4601,178
41.4805,176
41.5008,213
41.5212,205
41.5415,178
41.5619,195
41.5822,188
41.6026,196
41.6229,233
41.6433,195
41.6636,163
41.6840,195
41.7044,174
41.7247,180
41.7451,164
41.7654,193
41.7858,191
41.8061,213
41.8265,178
41.8468,194
41.8672,170
41.8876,162
41.9079,193
41.9283,163
41.9486,180
41.9690,152
41.9893,154
42.0097,212
42.0300,181
42.0504,187
42.0707,192
42.0911,190
42.1115,173
42.1318,187
42.1522,183
42.1725,176
42.1929,185
42.2132,155
42.2336,209
42.2539,188
42.2743,186
42.2947,211
42.3150,184
42.3354,187
42.3557,155
42.3761,211
42.3964,196
42.4168,186
42.4371,180
42.4575,185
42.4779,160
42.4982,162
42.5186,171
42.5389,177
42.5593,188
42.5796,177
42.6000,169
42.6203,159
42.6407,165
42.6610,173
42.6814,168
42.7018,174
42.7221,165
42.7425,168
42.7628,177
42.7832,158
42.8035,186
42.8239,178
42.8442,194
42.8646,166
42.8850,179
42.9053,177
42.9257,178
42.9460,171
42.9664,182
42.9867,182
43.0071,187
43.0274,194
43.0478,153
43.0681,185
43.0885,167
43.1089,185
43.1292,155
43.1496,177
43.1699,178
43.1903,152
43.2106,172
43.2310,183
43.2513,174
43.2717,178
43.2921,162
43.3124,169
43.3328,183
43.3531,161
43.3735,165
43.3938,187
43.4142,168
43.4345,145
43.4549,192
43.4753,182
43.4956,171
43.5160,166
43.5363,165
43.5567,164
43.5770,147
43.5974,159
43.6177,155
43.6381,153
43.6584,195
43.6788,178
43.6992,158
43.7195,197
43.7399,176
43.7602,179
43.7806,156
43.8009,153
43.8213,168
43.8416,154
43.8620,181
43.8824,176
43.9027,164
43.9231,162
43.9434,154
43.9638,159
43.9841,150
44.0045,163
44.0248,160
44.0452,167
44.0656,178
44.0859,177
44.1063,160
44.1266,170
44.1470,142
44.1673,156
44.1877,161
44.2080,166
44.2284,158
44.2487,166
44.2691,157
44.2895,157
44.3098,125
44.3302,161
44.3505,169
44.3709,141
44.3912,157
44.4116,167
44.4319,155
44.4523,161
44.4727,165
44.4930,166
44.5134,159
44.5337,168
44.5541,159
44.5744,150
44.5948,151
44.6151,179
44.6355,156
44.6558,130
44.6762,147
44.6966,155
44.7169,139
44.7373,158
44.7576,151
44.7780,162
44.7983,158
44.8187,158
44.8390,175
44.8594,159
44.8798,150
44.9001,156
44.9205,150
44.9408,156
44.9612,159
44.9815,180
45.0019,139
45.0222,150
45.0426,169
45.0630,162
45.0833,127
45.1037,151
45.1240,148
45.1444,118
45.1647,167
45.1851,151
45.2054,142
45.2258,177
45.2461,163
45.2665,137
45.2869,155
45.3072,161
45.3276,169
45.3479,136
45.3683,142
45.3886,163
45.4090,156
45.4293,155
45.4497,153
45.4701,146
45.4904,145
45.5108,141
45.5311,159
45.5515,158
45.5718,160
45.5922,127
45.6125,170
45.6329,164
45.6533,177
45.6736,161
45.6940,151
45.7143,161
45.7347,135
45.7550,146
45.7754,168
45.7957,154
45.8161,152
45.8364,155
45.8568,158
45.8772,163
45.8975,157
45.9179,142
45.9382,163
45.9586,151
45.9789,143
45.9993,165
46.0196,150
46.0400,162
46.0604,134
46.0807,147
46.1011,135
46.1214,136
46.1418,135
46.1621,133
46.1825,136
46.2028,143
46.2232,144
46.2435,150
46.2639,156
46.2843,151
46.3046,153
46.3250,153
46.3453,142
46.3657,141
46.3860,140
46.4064,146
46.4267,153
46.4471,154
46.4675,141
46.4878,145
46.5082,133
46.5285,163
46.5489,152
46.5692,136
46.5896,143
46.6099,135
46.6303,131
46.6507,143
46.6710,143
46.6914,127
46.7117,147
46.7321,144
46.7524,156
46.7728,137
46.7931,177
46.8135,147
46.8338,160
46.8542,185
46.8746,161
46.8949,170
46.9153,181
46.9356,170
46.9560,164
46.9763,178
46.9967,174
47.0170,199
47.0374,192
47.0578,218
47.0781,224
47.0985,258
47.1188,351
47.1392,405
47.1595,505
47.1799,604
47.2002,697
47.2206,713
47.2410,814
47.2613,817
47.2817,757
47.3020,693
47.3224,663
47.3427,584
47.3631,524
47.3834,516
47.4038,433
47.4241,367
47.4445,335
47.4649,278
47.4852,232
47.5056,221
47.5259,182
47.5463,189
47.5666,147
47.5870,154
47.6073,184
47.6277,146
47.6481,140
47.6684,180
47.6888,150
47.7091,145
47.7295,159
47.7498,144
47.7702,131
47.7905,132
47.8109,137
47.8312,160
47.8516,125
47.8720,129
47.8923,135
47.9127,134
47.9330,136
47.9534,162
47.9737,140
47.9941,146
48.0144,134
48.0348,147
48.0552,108
48.0755,106
48.0959,124
48.1162,123
48.1366,137
48.1569,170
48.1773,127
48.1976,132
48.2180,139
48.2384,125
48.2587,135
48.2791,135
48.2994,147
48.3198,151
48.3401,128
48.3605,122
48.3808,125
48.4012,125
48.4215,113
48.4419,145
48.4623,134
48.4826,125
48.5030,131
48.5233,131
48.5437,121
48.5640,139
48.5844,139
48.6047,142
48.6251,139
48.6455,142
48.6658,130
48.6862,128
48.7065,117
48.7269,117
48.7472,127
48.7676,126
48.7879,153
48.8083,122
48.8286,133
48.8490,133
48.8694,121
48.8897,150
48.9101,134
48.9304,139
48.9508,132
48.9711,130
48.9915,129
49.0118,135
49.0322,132
49.0526,123
49.0729,124
49.0933,139
49.1136,135
49.1340,108
49.1543,132
49.1747,115
49.1950,131
49.2154,120
49.2358,132
49.2561,122
49.2765,124
49.2968,112
49.3172,126
49.3375,121
49.3579,138
49.3782,142
49.3986,113
49.4189,139
49.4393,127
49.4597,120
49.4800,130
49.5004,143
49.5207,124
49.5411,103
49.5614,121
49.5818,126
49.6021,120
49.6225,131
49.6429,126
49.6632,121
49.6836,124
49.7039,135
49.7243,137
49.7446,111
49.7650,140
49.7853,108
49.8057,135
49.8261,129
49.8464,129
49.8668,133
49.8871,109
49.9075,122
49.9278,137
49.9482,131
49.9685,120
49.9889,147
50.0092,119
50.0296,136
50.0500,125
50.0703,122
50.0907,113
50.1110,127
50.1314,125
50.1517,122
50.1721,138
50.1924,112
50.2128,148
50.2332,124
50.2535,121
50.2739,128
50.2942,128
50.3146,127
50.3349,120
50.3553,127
50.3756,124
50.3960,121
50.4163,131
50.4367,135
50.4571,113
50.4774,123
50.4978,120
50.5181,122
50.5385,107
50.5588,131
50.5792,123
50.5995,139
50.6199,132
50.6403,128
50.6606,120
50.6810,120
50.7013,125
50.7217,124
50.7420,117
50.7624,119
50.7827,124
50.8031,118
50.8235,127
50.8438,129
50.8642,105
50.8845,116
50.9049,120
50.9252,140
50.9456,118
50.9659,116
50.9863,122
51.0066,134
51.0270,137
51.0474,119
51.0677,144
51.0881,113
51.1084,103
51.1288,115
51.1491,113
51.1695,103
51.1898,105
51.2102,108
51.2306,94
51.2509,115
51.2713,132
51.2916,122
51.3120,122
51.3323,123
51.3527,123
51.3730,115
51.3934,122
51.4138,115
51.4341,129
51.4545,114
51.4748,122
51.4952,115
51.5155,113
51.5359,124
51.5562,100
51.5766,135
51.5969,109
51.6173,132
51.6377,110
51.6580,115
51.6784,112
51.6987,100
51.7191,134
51.7394,120
51.7598,147
51.7801,122
51.8005,122
51.8209,126
51.8412,114
51.8616,123
51.8819,114
51.9023,118
51.9226,118
51.9430,113
51.9633,115
51.9837,109
52.0040,115
52.0244,117
52.0448,134
52.0651,120
52.0855,127
52.1058,110
52.1262,111
52.1465,123
52.1669,115
52.1872,132
52.2076,130
52.2280,108
52.2483,112
52.2687,112
52.2890,107
52.3094,105
52.3297,109
52.3501,115
52.3704,130
52.3908,114
52.4112,107
52.4315,123
52.4519,118
52.4722,116
52.4926,106
52.5129,125
52.5333,130
52.5536,125
52.5740,109
52.5943,132
52.6147,133
52.6351,140
52.6554,127
52.6758,118
52.6961,120
52.7165,124
52.7368,125
52.7572,145
52.7775,145
52.7979,149
52.8183,143
52.8386,138
52.8590,137
52.8793,147
52.8997,150
52.9200,183
52.9404,186
52.9607,202
52.9811,248
53.0014,257
53.0218,329
53.0422,380
53.0625,414
53.0829,460
53.1032,491
53.1236,516
53.1439,539
53.1643,552
53.1846,448
53.2050,428
53.2254,403
53.2457,330
53.2661,347
53.2864,338
53.3068,304
53.3271,269
53.3475,236
53.3678,223
53.3882,170
53.4086,153
53.4289,161
53.4493,150
53.4696,132
53.4900,154
53.5103,144
53.5307,142
53.5510,136
53.5714,126
53.5917,123
53.6121,117
53.6325,126
53.6528,141
53.6732,130
53.6935,118
53.7139,121
53.7342,117
53.7546,130
53.7749,128
53.7953,128
53.8157,143
53.8360,147
53.8564,140
53.8767,105
53.8971,115
53.9174,119
53.9378,146
53.9581,135
53.9785,136
53.9989,132
54.0192,139
54.0396,160
54.0599,171
54.0803,165
54.1006,162
54.1210,177
54.1413,214
54.1617,205
54.1820,255
54.2024,329
54.2228,366
54.2431,449
54.2635,477
54.2838,502
54.3042,493
54.3245,519
54.3449,435
54.3652,454
54.3856,403
54.4060,387
54.4263,362
54.4467,325
54.4670,309
54.4874,308
54.5077,256
54.5281,196
54.5484,166
54.5688,164
54.5891,157
54.6095,147
54.6299,122
54.6502,149
54.6706,124
54.6909,113
54.7113,129
54.7316,132
54.7520,113
54.7723,131
54.7927,124
54.8131,118
54.8334,110
54.8538,131
54.8741,101
54.8945,106
54.9148,112
54.9352,118
54.9555,107
54.9759,119
54.9963,102
55.0166,130
55.0370,111
55.0573,110
55.0777,109
55.0980,108
55.1184,108
55.1387,103
55.1591,102
55.1794,133
55.1998,113
55.2202,124
55.2405,99
55.2609,113
55.2812,131
55.3016,93
55.3219,108
55.3423,118
55.3626,104
55.3830,117
55.4034,114
55.4237,122
55.4441,114
55.4644,105
55.4848,121
55.5051,113
55.5255,107
55.5458,103
55.5662,126
55.5866,103
55.6069,98
55.6273,104
55.6476,117
55.6680,106
55.6883,104
55.7087,121
55.7290,111
55.7494,112
55.7697,116
55.7901,101
55.8105,112
55.8308,112
55.8512,113
55.8715,146
55.8919,101
55.9122,120
55.9326,126
55.9529,107
55.9733,108
55.9937,115
56.0140,127
56.0344,104
56.0547,110
56.0751,98
56.0954,97
56.1158,95
56.1361,110
56.1565,108
56.1768,110
56.1972,112
56.2176,128
56.2379,116
56.2583,131
56.2786,119
56.2990,102
56.3193,123
56.3397,107
56.3600,100
56.3804,91
56.4008,123
56.4211,109
56.4415,115
56.4618,111
56.4822,115
56.5025,117
56.5229,121
56.5432,101
56.5636,92
56.5840,114
56.6043,123
56.6247,112
56.6450,97
56.6654,110
56.6857,112
56.7061,107
56.7264,109
56.7468,107
56.7671,93
56.7875,119
56.8079,107
56.8282,106
56.8486,119
56.8689,103
56.8893,103
56.9096,132
56.9300,97
56.9503,112
56.9707,105
56.9911,111
57.0114,75
57.0318,87
57.0521,107
57.0725,91
57.0928,100
57.1132,93
57.1335,97
57.1539,97
57.1743,98
57.1946,100
57.2150,129
57.2353,117
57.2557,103
57.2760,111
57.2964,108
57.3167,101
57.3371,104
57.3574,117
57.3778,107
57.3982,98
57.4185,104
57.4389,99
57.4592,98
57.4796,118
57.4999,112
57.5203,103
57.5406,97
57.5610,94
57.5814,116
57.6017,105
57.6221,102
57.6424,103
57.6628,81
57.6831,105
57.7035,98
57.7238,115
57.7442,95
57.7645,99
57.7849,109
57.8053,101
57.8256,106
57.8460,104
57.8663,98
57.8867,108
57.9070,111
57.9274,110
57.9477,111
57.9681,95
57.9885,92
58.0088,106
58.0292,108
58.0495,108
58.0699,103
58.0902,102
58.1106,102
58.1309,104
58.1513,101
58.1717,102
58.1920,93
58.2124,116
58.2327,104
58.2531,85
58.2734,82
58.2938,101
58.3141,110
58.3345,107
58.3548,90
58.3752,105
58.3956,110
58.4159,93
58.4363,111
58.4566,82
58.4770,115
58.4973,106
58.5177,96
58.5380,113
58.5584,104
58.5788,82
58.5991,93
58.6195,83
58.6398,98
58.6602,100
58.6805,97
58.7009,77
58.7212,101
58.7416,113
58.7619,102
58.7823,92
58.8027,103
58.8230,113
58.8434,88
58.8637,84
58.8841,96
58.9044,94
58.9248,101
58.9451,94
58.9655,98
58.9859,95
59.0062,103
59.0266,94
59.0469,86
59.0673,96
59.0876,92
59.1080,97
59.1283,89
59.1487,118
59.1691,104
59.1894,110
59.2098,100
59.2301,120
59.2505,100
59.2708,93
59.2912,90
59.3115,79
59.3319,104
59.3522,104
59.3726,90
59.3930,99
59.4133,108
59.4337,86
59.4540,99
59.4744,107
59.4947,107
59.5151,111
59.5354,86
59.5558,90
59.5762,98
59.5965,96
59.6169,89
59.6372,87
59.6576,83
59.6779,109
59.6983,93
59.7186,95
59.7390,94
59.7594,95
59.7797,109
59.8001,94
59.8204,96
59.8408,85
59.8611,100
59.8815,96
59.9018,100
59.9222,85
59.9425,102
59.9629,90
59.9833,100
60.0036,96
60.0240,105
60.0443,105
60.0647,101
60.0850,93
60.1054,112
60.1257,102
60.1461,86
60.1665,102
60.1868,107
60.2072,100
60.2275,111
60.2479,96
60.2682,93
60.2886,90
60.3089,86
60.3293,88
60.3496,82
60.3700,95
60.3904,102
60.4107,111
60.4311,92
60.4514,99
60.4718,90
60.4921,96
60.5125,107
60.5328,102
60.5532,100
60.5736,102
60.5939,99
60.6143,108
60.6346,100
60.6550,112
60.6753,96
60.6957,84
60.7160,95
60.7364,95
60.7568,107
60.7771,85
60.7975,89
60.8178,83
60.8382,82
60.8585,126
60.8789,98
60.8992,112
60.9196,86
60.9399,78
60.9603,93
60.9807,94
61.0010,114
61.0214,115
61.0417,102
61.0621,97
61.0824,101
61.1028,92
61.1231,91
61.1435,103
61.1639,102
61.1842,106
61.2046,97
61.2249,112
61.2453,113
61.2656,142
61.2860,135
61.3063,122
61.3267,152
61.3471,168
61.3674,160
61.3878,162
61.4081,186
61.4285,161
61.4488,145
61.4692,120
61.4895,140
61.5099,152
61.5302,128
61.5506,139
61.5710,142
61.5913,138
61.6117,109
61.6320,131
61.6524,100
61.6727,98
61.6931,119
61.7134,123
61.7338,128
61.7542,116
61.7745,155
61.7949,171
61.8152,166
61.8356,179
61.8559,249
61.8763,289
61.8966,306
61.9170,337
61.9373,409
61.9577,404
61.9781,408
61.9984,353
62.0188,326
62.0391,291
62.0595,247
62.0798,260
62.1002,272
62.1205,252
62.1409,263
62.1613,241
62.1816,216
62.2020,206
62.2223,153
62.2427,126
62.2630,118
62.2834,131
62.3037,117
62.3241,118
62.3445,110
62.3648,98
62.3852,112
62.4055,103
62.4259,115
62.4462,105
62.4666,98
62.4869,108
62.5073,84
62.5276,87
62.5480,91
62.5684,85
62.5887,108
62.6091,90
62.6294,96
62.6498,90
62.6701,107
62.6905,78
62.7108,97
62.7312,93
62.7516,92
62.7719,100
62.7923,102
62.8126,106
62.8330,80
62.8533,72
62.8737,86
62.8940,88
62.9144,88
62.9348,111
62.9551,98
62.9755,96
62.9958,95
63.0162,109
63.0365,83
63.0569,84
63.0772,97
63.0976,93
63.1179,83
63.1383,93
63.1587,89
63.1790,88
63.1994,99
63.2197,85
63.2401,95
63.2604,93
63.2808,91
63.3011,108
63.3215,94
63.3419,78
63.3622,92
63.3826,93
63.4029,75
63.4233,91
63.4436,84
63.4640,105
63.4843,92
63.5047,85
63.5250,73
63.5454,108
63.5658,93
63.5861,83
63.6065,100
63.6268,89
63.6472,94
63.6675,93
63.6879,81
63.7082,89
63.7286,104
63.7490,79
63.7693,78
63.7897,73
63.8100,85
63.8304,100
63.8507,98
63.8711,94
63.8914,87
63.9118,74
63.9322,87
63.9525,72
63.9729,95
63.9932,82
64.0136,78
64.0339,92
64.0543,78
64.0746,93
64.0950,108
64.1153,100
64.1357,82
64.1561,90
64.1764,89
64.1968,97
64.2171,88
64.2375,91
64.2578,101
64.2782,80
64.2985,84
64.3189,84
64.3393,86
64.3596,97
64.3800,81
64.4003,82
64.4207,84
64.4410,93
64.4614,83
64.4817,71
64.5021,84
64.5224,88
64.5428,96
64.5632,90
64.5835,75
64.6039,97
64.6242,77
64.6446,103
64.6649,84
64.6853,86
64.7056,96
64.7260,95
64.7464,84
64.7667,72
64.7871,83
64.8074,81
64.8278,73
64.8481,86
64.8685,96
64.8888,72
64.9092,76
64.9296,85
64.9499,106
64.9703,83
64.9906,84
65.0110,96
65.0313,88
65.0517,80
65.0720,97
65.0924,83
65.1127,87
65.1331,100
65.1535,88
65.1738,85
65.1942,73
65.2145,85
65.2349,100
65.2552,80
65.2756,85
65.2959,86
65.3163,88
65.3367,66
65.3570,91
65.3774,77
65.3977,84
65.4181,75
65.4384,98
65.4588,90
65.4791,105
65.4995,93
65.5199,86
65.5402,79
65.5606,77
65.5809,86
65.6013,85
65.6216,97
65.6420,109
65.6623,95
65.6827,89
65.7030,86
65.7234,84
65.7438,100
65.7641,80
65.7845,86
65.8048,97
65.8252,78
65.8455,84
65.8659,78
65.8862,83
65.9066,101
65.9270,90
65.9473,92
65.9677,109
65.9880,97
66.0084,88
66.0287,70
66.0491,72
66.0694,77
66.0898,75
66.1101,97
66.1305,90
66.1509,87
66.1712,89
66.1916,82
66.2119,89
66.2323,75
66.2526,89
66.2730,90
66.2933,87
66.3137,82
66.3341,77
66.3544,84
66.3748,99
66.3951,96
66.4155,93
66.4358,97
66.4562,82
66.4765,104
66.4969,86
66.5173,84
66.5376,80
66.5580,87
66.5783,76
66.5987,98
66.6190,77
66.6394,73
66.6597,94
66.6801,92
66.7004,85
66.7208,77
66.7412,77
66.7615,97
66.7819,95
66.8022,80
66.8226,90
66.8429,91
66.8633,104
66.8836,81
66.9040,76
66.9244,101
66.9447,85
66.9651,80
66.9854,77
67.0058,92
67.0261,89
67.0465,76
67.0668,94
67.0872,89
67.1076,85
67.1279,83
67.1483,100
67.1686,79
67.1890,83
67.2093,87
67.2297,68
67.2500,84
67.2704,91
67.2907,81
67.3111,85
67.3315,96
67.3518,83
67.3722,66
67.3925,70
67.4129,102
67.4332,82
67.4536,86
67.4739,81
67.4943,76
67.5147,79
67.5350,77
67.5554,99
67.5757,78
67.5961,91
67.6164,94
67.6368,93
67.6571,91
67.6775,98
67.6978,83
67.7182,79
67.7386,94
67.7589,89
67.7793,81
67.7996,86
67.8200,106
67.8403,117
67.8607,110
67.8810,107
67.9014,124
67.9218,121
67.9421,118
67.9625,150
67.9828,156
68.0032,194
68.0235,206
68.0439,226
68.0642,258
68.0846,195
68.1050,194
68.1253,171
68.1457,154
68.1660,178
68.1864,147
68.2067,187
68.2271,149
68.2474,151
68.2678,167
68.2881,139
68.3085,143
68.3289,133
68.3492,132
68.3696,104
68.3899,91
68.4103,101
68.4306,86
68.4510,79
68.4713,92
68.4917,86
68.5121,91
68.5324,102
68.5528,78
68.5731,82
68.5935,80
68.6138,101
68.6342,70
68.6545,94
68.6749,73
68.6953,76
68.7156,80
68.7360,91
68.7563,89
68.7767,74
68.7970,89
68.8174,88
68.8377,79
68.8581,72
68.8784,87
68.8988,87
68.9192,90
68.9395,80
68.9599,76
68.9802,87
69.0006,86
69.0209,88
69.0413,97
69.0616,84
69.0820,81
69.1024,82
69.1227,90
69.1431,81
69.1634,83
69.1838,85
69.2041,82
69.2245,99
69.2448,85
69.2652,81
69.2855,81
69.3059,80
69.3263,84
69.3466,87
69.3670,89
69.3873,90
69.4077,109
69.4280,97
69.4484,105
69.4687,141
69.4891,134
69.5095,165
69.5298,190
69.5502,229
69.5705,228
69.5909,261
69.6112,226
69.6316,206
69.6519,196
69.6723,158
69.6927,168
69.7130,147
69.7334,146
69.7537,190
69.7741,160
69.7944,165
69.8148,141
69.8351,153
69.8555,144
69.8758,132
69.8962,105
69.9166,109
69.9369,109
69.9573,87
69.9776,93
69.9980,94
70.0183,80
70.0387,89
70.0590,87
70.0794,104
70.0998,81
70.1201,96
70.1405,92
70.1608,85
70.1812,88
70.2015,79
70.2219,84
70.2422,96
70.2626,64
70.2829,78
70.3033,56
70.3237,82
70.3440,85
70.3644,78
70.3847,93
70.4051,82
70.4254,90
70.4458,86
70.4661,102
70.4865,68
70.5069,85
70.5272,71
70.5476,85
70.5679,74
70.5883,86
70.6086,82
70.6290,73
70.6493,68
70.6697,75
70.6901,69
70.7104,79
70.7308,90
70.7511,89
70.7715,82
70.7918,89
70.8122,88
70.8325,98
70.8529,84
70.8732,71
70.8936,67
70.9140,81
70.9343,83
70.9547,83
70.9750,69
70.9954,68
71.0157,83
71.0361,80
71.0564,68
71.0768,66
71.0972,88
71.1175,77
71.1379,68
71.1582,75
71.1786,70
71.1989,80
71.2193,79
71.2396,83
71.2600,77
71.2804,78
71.3007,84
71.3211,79
71.3414,96
71.3618,83
71.3821,67
71.4025,100
71.4228,72
71.4432,74
71.4635,84
71.4839,93
71.5043,82
71.5246,88
71.5450,71
71.5653,67
71.5857,73
71.6060,78
71.6264,78
71.6467,71
71.6671,88
71.6875,74
71.7078,72
71.7282,78
71.7485,65
71.7689,77
71.7892,75
71.8096,83
71.8299,85
71.8503,79
71.8706,69
71.8910,88
71.9114,72
71.9317,81
71.9521,72
71.9724,67
71.9928,71
72.0131,70
72.0335,63
72.0538,73
72.0742,73
72.0946,79
72.1149,77
72.1353,79
72.1556,77
72.1760,64
72.1963,83
72.2167,79
72.2370,90
72.2574,71
72.2778,100
72.2981,74
72.3185,83
72.3388,74
72.3592,80
72.3795,87
72.3999,63
72.4202,81
72.4406,64
72.4609,70
72.4813,86
72.5017,71
72.5220,60
72.5424,65
72.5627,79
72.5831,77
72.6034,69
72.6238,85
72.6441,100
72.6645,74
72.6849,87
72.7052,80
72.7256,68
72.7459,86
72.7663,75
72.7866,70
72.8070,67
72.8273,86
72.8477,69
72.8681,78
72.8884,78
72.9088,65
72.9291,84
72.9495,67
72.9698,76
72.9902,77
73.0105,75
73.0309,67
73.0512,89
73.0716,89
73.0920,63
73.1123,79
73.1327,83
73.1530,62
73.1734,72
73.1937,77
73.2141,73
73.2344,75
73.2548,88
73.2752,64
73.2955,85
73.3159,95
73.3362,65
73.3566,77
73.3769,82
73.3973,84
73.4176,79
73.4380,96
73.4583,86
73.4787,96
73.4991,83
73.5194,91
73.5398,64
73.5601,87
73.5805,87
73.6008,76
73.6212,64
73.6415,79
73.6619,89
73.6823,79
73.7026,88
73.7230,85
73.7433,77
73.7637,73
73.7840,81
73.8044,79
73.8247,67
73.8451,67
73.8655,81
73.8858,95
73.9062,74
73.9265,97
73.9469,76
73.9672,80
73.9876,103
74.0079,101
74.0283,77
74.0486,81
74.0690,91
74.0894,88
74.1097,105
74.1301,111
74.1504,103
74.1708,94
74.1911,103
74.2115,113
74.2318,120
74.2522,146
74.2726,148
74.2929,201
74.3133,230
74.3336,261
74.3540,294
74.3743,324
74.3947,306
74.4150,249
74.4354,200
74.4558,191
74.4761,152
74.4965,178
74.5168,163
74.5372,175
74.5575,192
74.5779,211
74.5982,205
74.6186,210
74.6389,178
74.6593,163
74.6797,152
74.7000,111
74.7204,98
74.7407,101
74.7611,78
74.7814,92
74.8018,105
74.8221,101
74.8425,85
74.8629,89
74.8832,87
74.9036,80
74.9239,78
74.9443,76
74.9646,67
74.9850,79
75.0053,85
